#  Table crwfpc2comp$wfpc2_f814w_004.tab  Thu 08:19:11 15-May-97
# WAVELENGTH   THROUGHPUT        error
#  ANGSTROMS TRANSMISSION TRANSMISSION
0.185000	3.03840e-07
0.186000	3.17770e-05
0.187000	4.10210e-06
0.188000	4.54600e-07
0.189000	3.92530e-06
0.190000	3.03840e-07
0.191000	3.03840e-07
0.192000	5.91150e-05
0.193000	4.70650e-06
0.194000	3.03840e-07
0.195000	9.83000e-06
0.196000	2.71550e-05
0.197000	5.83270e-07
0.198000	3.04030e-07
0.199000	1.91410e-05
0.200000	3.17480e-06
0.201000	2.39260e-06
0.202000	1.41160e-05
0.203000	1.74400e-05
0.204000	6.62440e-07
0.205000	6.28330e-06
0.206000	1.67970e-06
0.207000	2.95190e-06
0.208000	2.60790e-06
0.209000	5.51560e-06
0.210000	5.47910e-06
0.211000	2.49830e-06
0.212000	3.03840e-07
0.213000	1.84490e-06
0.214000	1.33660e-06
0.215000	1.45480e-05
0.216000	1.35780e-06
0.217000	3.34010e-07
0.218000	4.23950e-07
0.219000	3.03840e-07
0.220000	3.92430e-07
0.221000	4.60660e-07
0.222000	1.98520e-06
0.223000	7.33260e-07
0.224000	3.05850e-07
0.225000	1.61620e-06
0.226000	9.44180e-07
0.227000	4.30390e-07
0.228000	3.03840e-07
0.229000	3.03840e-07
0.230000	3.30840e-07
0.231000	2.16200e-06
0.232000	3.93780e-07
0.233000	9.02280e-07
0.234000	4.03290e-07
0.235000	2.12840e-06
0.236000	3.54000e-06
0.237000	7.07130e-07
0.238000	7.93130e-06
0.239000	3.28630e-07
0.240000	4.44510e-07
0.241000	3.03840e-07
0.242000	1.04450e-06
0.243000	4.20200e-06
0.244000	6.78490e-07
0.245000	3.03840e-07
0.246000	6.46690e-07
0.247000	1.25970e-06
0.248000	3.92240e-06
0.249000	3.41700e-07
0.250000	4.29230e-07
0.251000	8.40980e-07
0.252000	4.63350e-07
0.253000	3.60240e-07
0.254000	1.30390e-06
0.255000	4.72860e-07
0.256000	3.03840e-07
0.257000	2.19950e-06
0.258000	1.82760e-06
0.259000	1.56910e-06
0.260000	1.00130e-06
0.261000	3.34390e-07
0.262000	1.60280e-06
0.263000	3.54670e-07
0.264000	6.66860e-07
0.265000	4.21450e-07
0.266000	3.26900e-06
0.267000	9.99340e-07
0.268000	4.46720e-07
0.269000	3.03840e-07
0.270000	4.21450e-07
0.271000	3.03840e-07
0.272000	3.94060e-07
0.273000	8.42710e-07
0.274000	6.61680e-07
0.275000	4.35580e-07
0.276000	6.34670e-07
0.277000	1.34330e-06
0.278000	3.16230e-07
0.279000	9.41390e-07
0.280000	3.03840e-07
0.281000	3.03840e-07
0.282000	6.45630e-07
0.283000	7.04820e-07
0.284000	1.16080e-06
0.285000	3.71390e-07
0.286000	2.03610e-06
0.287000	7.42300e-07
0.288000	7.40180e-07
0.289000	1.88910e-06
0.290000	1.29140e-06
0.291000	3.03840e-07
0.292000	1.39230e-06
0.293000	2.20810e-06
0.294000	4.71130e-07
0.295000	2.06310e-06
0.296000	3.03840e-07
0.297000	4.52010e-07
0.298000	4.66520e-07
0.299000	3.03840e-07
0.300000	2.73090e-06
0.301000	3.03840e-07
0.302000	7.13280e-07
0.303000	4.12990e-07
0.304000	6.91750e-07
0.305000	1.28950e-06
0.306000	5.77120e-07
0.307000	1.02530e-06
0.308000	6.61100e-07
0.309000	6.19490e-06
0.310000	1.10890e-05
0.311000	1.14540e-06
0.312000	3.03840e-07
0.313000	4.20390e-07
0.314000	2.05730e-06
0.315000	2.20720e-06
0.316000	2.93840e-06
0.317000	1.03870e-06
0.318000	1.05410e-06
0.319000	4.55660e-07
0.320000	7.30570e-07
0.321000	4.78720e-07
0.322000	5.60010e-07
0.323000	8.32430e-07
0.324000	1.87660e-06
0.325000	3.82050e-07
0.326000	3.03840e-07
0.327000	1.74210e-06
0.328000	3.49770e-06
0.329000	1.17420e-06
0.330000	3.03840e-07
0.331000	4.00500e-07
0.332000	4.68820e-07
0.333000	1.33370e-06
0.334000	6.55810e-07
0.335000	8.10710e-07
0.336000	3.03840e-07
0.337000	2.92210e-06
0.338000	3.74460e-07
0.339000	3.52840e-07
0.340000	3.44870e-07
0.341000	4.15300e-06
0.342000	2.16300e-06
0.343000	4.72380e-07
0.344000	4.28850e-07
0.345000	4.56140e-07
0.346000	2.19570e-06
0.347000	3.34390e-07
0.348000	2.37530e-06
0.349000	1.29910e-06
0.350000	5.31570e-06
0.351000	5.63570e-06
0.352000	3.05090e-07
0.353000	4.95440e-07
0.354000	1.33850e-06
0.355000	6.36210e-07
0.356000	5.01490e-07
0.357000	6.04020e-07
0.358000	1.64790e-06
0.359000	2.80490e-06
0.360000	5.82690e-07
0.361000	3.19600e-07
0.362000	3.79270e-06
0.363000	2.45030e-06
0.364000	3.03840e-07
0.365000	3.30650e-07
0.366000	8.73360e-07
0.367000	3.82730e-07
0.368000	2.49160e-06
0.369000	2.46860e-06
0.370000	9.27840e-07
0.371000	1.93810e-06
0.372000	7.43160e-07
0.373000	5.62220e-07
0.374000	5.92300e-07
0.375000	1.46440e-06
0.376000	3.08350e-07
0.377000	3.03840e-07
0.378000	6.16510e-07
0.379000	3.46120e-07
0.380000	5.66830e-07
0.381000	3.61300e-07
0.382000	2.31870e-06
0.383000	7.09720e-07
0.384000	3.03840e-07
0.385000	3.03840e-07
0.386000	3.91570e-07
0.387000	3.58800e-07
0.388000	5.95180e-07
0.389000	3.18440e-07
0.390000	2.77030e-06
0.391000	9.20350e-07
0.392000	3.73500e-07
0.393000	3.03840e-07
0.394000	6.62350e-07
0.395000	3.43430e-07
0.396000	5.60110e-07
0.397000	3.06240e-07
0.398000	4.50370e-07
0.399000	3.03840e-07
0.400000	1.14920e-06
0.401000	3.73120e-07
0.402000	1.30010e-06
0.403000	5.32820e-07
0.404000	3.03840e-07
0.405000	3.03840e-07
0.406000	6.86080e-07
0.407000	4.85160e-07
0.408000	1.68930e-06
0.409000	1.16850e-06
0.410000	3.38240e-07
0.411000	3.03840e-07
0.412000	4.26640e-07
0.413000	6.36500e-07
0.414000	4.00500e-07
0.415000	3.03840e-07
0.416000	7.10970e-07
0.417000	3.03840e-07
0.418000	3.03840e-07
0.419000	3.98580e-07
0.420000	3.25460e-07
0.421000	4.03870e-07
0.422000	4.56240e-07
0.423000	5.26090e-07
0.424000	3.83880e-07
0.425000	5.76730e-07
0.426000	3.03840e-07
0.427000	3.03840e-07
0.428000	3.03840e-07
0.429000	3.03840e-07
0.430000	3.03840e-07
0.431000	3.03840e-07
0.432000	3.03840e-07
0.433000	3.03840e-07
0.434000	3.03840e-07
0.435000	3.03840e-07
0.436000	3.03840e-07
0.437000	3.03840e-07
0.438000	3.03840e-07
0.439000	6.28040e-07
0.440000	1.44230e-05
0.441000	2.83850e-05
0.442000	3.63990e-05
0.443000	4.35000e-05
0.444000	3.94160e-05
0.445000	2.84520e-05
0.446000	1.80940e-05
0.447000	7.29420e-06
0.448000	1.49130e-06
0.449000	3.30930e-07
0.450000	3.82920e-07
0.451000	3.03840e-07
0.452000	1.27610e-06
0.453000	1.56910e-06
0.454000	5.10140e-07
0.455000	8.04370e-07
0.456000	3.75420e-07
0.457000	3.03840e-07
0.458000	5.06300e-07
0.459000	3.58610e-07
0.460000	6.48420e-07
0.461000	7.08570e-07
0.462000	4.55950e-07
0.463000	8.02350e-07
0.464000	3.03840e-07
0.465000	3.03840e-07
0.466000	3.03840e-07
0.467000	3.03840e-07
0.468000	6.02000e-07
0.469000	3.03840e-07
0.470000	5.79520e-07
0.471000	6.29290e-07
0.472000	6.35920e-07
0.473000	5.85570e-07
0.474000	3.03840e-07
0.475000	3.03840e-07
0.476000	7.17410e-07
0.477000	3.03840e-07
0.478000	4.07520e-07
0.479000	3.03840e-07
0.480000	5.55880e-07
0.481000	3.03840e-07
0.482000	3.03840e-07
0.483000	3.07680e-07
0.484000	3.73790e-07
0.485000	3.03840e-07
0.486000	3.03840e-07
0.487000	3.69850e-07
0.488000	3.03840e-07
0.489000	4.69690e-07
0.490000	6.18720e-07
0.491000	6.25550e-07
0.492000	3.03840e-07
0.493000	7.19230e-07
0.494000	6.29490e-07
0.495000	3.23150e-07
0.496000	3.61010e-07
0.497000	5.85670e-07
0.498000	3.08740e-07
0.499000	5.85190e-07
0.500000	3.03840e-07
0.501000	3.56970e-07
0.502000	3.07010e-07
0.503000	9.66670e-07
0.504000	3.32280e-07
0.505000	3.03840e-07
0.506000	3.71580e-07
0.507000	4.57480e-07
0.508000	3.18630e-07
0.509000	3.87530e-07
0.510000	5.91150e-07
0.511000	5.31950e-07
0.512000	3.30740e-07
0.513000	3.03840e-07
0.514000	4.22800e-07
0.515000	1.25110e-06
0.516000	7.77270e-07
0.517000	3.19310e-07
0.518000	3.03840e-07
0.519000	3.03840e-07
0.520000	3.03840e-07
0.521000	3.03840e-07
0.522000	8.05330e-07
0.523000	5.53190e-07
0.524000	4.96300e-07
0.525000	4.65170e-07
0.526000	5.58960e-07
0.527000	4.38270e-07
0.528000	7.88130e-07
0.529000	3.03840e-07
0.530000	3.39100e-07
0.531000	4.24530e-07
0.532000	1.07810e-06
0.533000	6.75700e-07
0.534000	5.96530e-07
0.535000	3.73600e-07
0.536000	1.16850e-06
0.537000	6.75990e-07
0.538000	3.03840e-07
0.539000	3.03840e-07
0.540000	1.26170e-06
0.541000	3.03840e-07
0.542000	3.66200e-07
0.543000	9.10640e-07
0.544000	6.55620e-07
0.545000	5.11290e-07
0.546000	3.09700e-07
0.547000	3.03840e-07
0.548000	3.77060e-07
0.549000	3.03840e-07
0.550000	1.14540e-06
0.551000	1.42690e-06
0.552000	6.62730e-07
0.553000	3.03840e-07
0.554000	3.97240e-07
0.555000	3.03840e-07
0.556000	4.07330e-07
0.557000	6.95110e-07
0.558000	1.06950e-06
0.559000	5.87210e-07
0.560000	8.33770e-07
0.561000	3.87920e-07
0.562000	6.99630e-07
0.563000	3.97330e-07
0.564000	4.15490e-07
0.565000	4.62480e-07
0.566000	5.76060e-07
0.567000	9.37930e-07
0.568000	3.03840e-07
0.569000	3.03840e-07
0.570000	3.81190e-07
0.571000	7.27210e-07
0.572000	3.36600e-07
0.573000	3.03840e-07
0.574000	3.32180e-07
0.575000	3.03840e-07
0.576000	1.29530e-06
0.577000	3.03840e-07
0.578000	4.31830e-07
0.579000	3.13930e-07
0.580000	5.16770e-07
0.581000	5.01300e-07
0.582000	1.83340e-06
0.583000	9.73390e-07
0.584000	1.02720e-06
0.585000	3.03840e-07
0.586000	3.03840e-07
0.587000	8.49530e-07
0.588000	3.94830e-07
0.589000	6.29000e-07
0.590000	5.12930e-07
0.591000	5.29550e-07
0.592000	9.56480e-07
0.593000	5.56460e-07
0.594000	4.59210e-07
0.595000	3.03840e-07
0.596000	4.25970e-07
0.597000	8.66250e-07
0.598000	1.02050e-06
0.599000	3.03840e-07
0.600000	1.18290e-06
0.601000	1.48750e-06
0.602000	3.03840e-07
0.603000	3.03840e-07
0.604000	1.71520e-06
0.605000	1.23380e-06
0.606000	8.56160e-07
0.607000	3.47460e-07
0.608000	3.03840e-07
0.609000	4.72280e-07
0.610000	9.62820e-07
0.611000	1.19630e-06
0.612000	3.03840e-07
0.613000	7.28070e-07
0.614000	4.67960e-07
0.615000	8.94500e-07
0.616000	3.03840e-07
0.617000	3.03840e-07
0.618000	4.07520e-07
0.619000	1.05120e-06
0.620000	3.05470e-07
0.621000	3.03840e-07
0.622000	5.02450e-07
0.623000	2.19760e-06
0.624000	1.37890e-06
0.625000	5.05910e-07
0.626000	1.57590e-06
0.627000	6.36600e-07
0.628000	4.46430e-07
0.629000	3.03840e-07
0.630000	6.11710e-07
0.631000	3.13540e-07
0.632000	3.95990e-07
0.633000	2.03610e-06
0.634000	4.17510e-07
0.635000	1.25690e-06
0.636000	4.09540e-07
0.637000	3.65050e-07
0.638000	1.49610e-06
0.639000	1.97750e-06
0.640000	7.16540e-07
0.641000	3.63600e-07
0.642000	1.39140e-06
0.643000	4.18180e-07
0.644000	1.45480e-06
0.645000	4.63060e-07
0.646000	6.72340e-07
0.647000	7.47770e-07
0.648000	1.21460e-06
0.649000	7.71700e-07
0.650000	4.23560e-07
0.651000	5.60780e-07
0.652000	3.03840e-07
0.653000	5.72120e-07
0.654000	1.21840e-06
0.655000	1.18190e-06
0.656000	1.38950e-06
0.657000	3.41120e-07
0.658000	6.64170e-07
0.659000	7.61800e-07
0.660000	3.54670e-07
0.661000	5.60490e-07
0.662000	1.34430e-06
0.663000	9.57540e-07
0.664000	4.90440e-07
0.665000	4.49600e-07
0.666000	7.82650e-07
0.667000	7.28270e-07
0.668000	4.60170e-07
0.669000	4.52680e-07
0.670000	1.02620e-06
0.671000	6.90310e-07
0.672000	1.64410e-06
0.673000	1.35290e-06
0.674000	4.06650e-06
0.675000	7.18370e-06
0.676000	9.46010e-06
0.677000	1.44420e-05
0.678000	2.13320e-05
0.679000	3.13730e-05
0.680000	4.98320e-05
0.681000	7.61320e-05
0.682000	0.000118090
0.683000	0.000178920
0.684000	0.000279720
0.685000	0.000409150
0.686000	0.000630160
0.687000	0.000905650
0.688000	0.00136060
0.689000	0.00187180
0.692000	0.00368310
0.692200	0.00393200
0.692400	0.00424140
0.692600	0.00454890
0.692800	0.00489390
0.693000	0.00521960
0.693200	0.00558380
0.693400	0.00600560
0.693600	0.00642750
0.693800	0.00686850
0.694000	0.00734900
0.694200	0.00788610
0.694400	0.00840500
0.694600	0.00897860
0.694800	0.00960900
0.695000	0.0102430
0.695200	0.0109730
0.695400	0.0117040
0.695600	0.0124720
0.695800	0.0133280
0.696000	0.0142120
0.696200	0.0151530
0.696400	0.0162100
0.696600	0.0172770
0.696800	0.0184680
0.697000	0.0196600
0.697200	0.0209670
0.697400	0.0223220
0.697600	0.0238010
0.697800	0.0253580
0.698000	0.0270400
0.698200	0.0288170
0.698400	0.0307010
0.698600	0.0327380
0.698800	0.0348420
0.699000	0.0370720
0.699200	0.0394830
0.699400	0.0419910
0.699600	0.0446630
0.699800	0.0474780
0.700000	0.0505430
0.700200	0.0538200
0.700400	0.0572890
0.700600	0.0609690
0.700800	0.0649380
0.701000	0.0690600
0.701200	0.0733740
0.701400	0.0779770
0.701600	0.0829640
0.701800	0.0882110
0.702000	0.0938130
0.702200	0.0997410
0.702400	0.105890
0.702600	0.112520
0.702800	0.119730
0.703000	0.127130
0.703200	0.135010
0.703400	0.143270
0.703600	0.152010
0.703800	0.161240
0.704000	0.170940
0.704200	0.181320
0.704400	0.192080
0.704600	0.203230
0.704800	0.214860
0.705000	0.226960
0.705200	0.239740
0.705400	0.253000
0.705600	0.266940
0.705800	0.281350
0.706000	0.296250
0.706200	0.311520
0.706400	0.327090
0.706600	0.343330
0.706800	0.359950
0.707000	0.376860
0.707200	0.394260
0.707400	0.412230
0.707600	0.430390
0.707800	0.448550
0.708000	0.466810
0.708200	0.485350
0.708400	0.504090
0.708600	0.522830
0.708800	0.541080
0.709000	0.559530
0.709200	0.577500
0.709400	0.595090
0.709600	0.612290
0.709800	0.629390
0.710000	0.645820
0.710200	0.661870
0.710400	0.677240
0.710600	0.691940
0.710800	0.706070
0.711000	0.719520
0.711200	0.732210
0.711400	0.743740
0.711600	0.755170
0.711800	0.765840
0.712000	0.776020
0.712200	0.785730
0.712400	0.794380
0.712600	0.802740
0.712800	0.810420
0.713000	0.817440
0.713200	0.823880
0.713400	0.829930
0.713600	0.835600
0.713800	0.840400
0.714000	0.845020
0.714200	0.848950
0.714400	0.852800
0.714600	0.855970
0.714800	0.859140
0.715000	0.862020
0.715200	0.864620
0.715400	0.866830
0.715600	0.868850
0.715800	0.871060
0.716000	0.872880
0.716200	0.874420
0.716400	0.875760
0.716600	0.877110
0.716800	0.878260
0.717000	0.879700
0.717200	0.880860
0.717400	0.881910
0.717600	0.883070
0.717800	0.884220
0.718000	0.885080
0.718200	0.885850
0.718400	0.886810
0.718600	0.887780
0.718800	0.888450
0.719000	0.889410
0.719200	0.890370
0.719400	0.891230
0.719600	0.892390
0.719800	0.893440
0.720000	0.894500
0.720200	0.895650
0.720400	0.896710
0.720600	0.897860
0.720800	0.898830
0.721000	0.899880
0.721200	0.900750
0.721400	0.901900
0.721600	0.903050
0.721800	0.903920
0.722000	0.904980
0.722200	0.906130
0.722400	0.907190
0.722600	0.908530
0.722800	0.909880
0.723000	0.910930
0.723200	0.912090
0.723400	0.913050
0.723600	0.914100
0.723800	0.915350
0.724000	0.916510
0.724200	0.917560
0.724400	0.918520
0.724600	0.919580
0.724800	0.920450
0.725000	0.921120
0.725200	0.922080
0.725400	0.923040
0.725600	0.923910
0.725800	0.924670
0.726000	0.925730
0.726200	0.926310
0.726400	0.927080
0.726600	0.927840
0.726800	0.928230
0.727000	0.928710
0.727200	0.929380
0.727400	0.930050
0.727600	0.930250
0.727800	0.930540
0.728000	0.930820
0.728200	0.931300
0.728400	0.931590
0.728600	0.931780
0.728800	0.932070
0.729000	0.932260
0.729200	0.932070
0.729400	0.931880
0.729600	0.931880
0.729800	0.931500
0.730000	0.931110
0.730200	0.931110
0.730400	0.931020
0.730600	0.930820
0.730800	0.930630
0.731000	0.929960
0.731200	0.929570
0.731400	0.929000
0.731600	0.928330
0.731800	0.928040
0.732000	0.927460
0.732200	0.926980
0.732400	0.926210
0.732600	0.925440
0.732800	0.924670
0.733000	0.924290
0.733200	0.923620
0.733400	0.922940
0.733600	0.922080
0.733800	0.921020
0.734000	0.919870
0.734200	0.919000
0.734400	0.918240
0.734600	0.917560
0.734800	0.916990
0.735000	0.916120
0.735200	0.915350
0.735400	0.914490
0.735600	0.913430
0.735800	0.912570
0.736000	0.911700
0.736200	0.910640
0.736400	0.909780
0.736600	0.908820
0.736800	0.907670
0.737000	0.906710
0.737200	0.906030
0.737400	0.905260
0.737600	0.904300
0.737800	0.903820
0.738000	0.902770
0.738200	0.902090
0.738400	0.901320
0.738600	0.900650
0.738800	0.899790
0.739000	0.899110
0.739200	0.898250
0.739400	0.897480
0.739600	0.896710
0.739800	0.896140
0.740000	0.895270
0.740200	0.894790
0.740400	0.894210
0.740600	0.893730
0.740800	0.893350
0.741000	0.892580
0.741200	0.892100
0.741400	0.891520
0.741600	0.890950
0.741800	0.890270
0.742000	0.889890
0.742200	0.889700
0.742400	0.889500
0.742600	0.889020
0.742800	0.888830
0.743000	0.888350
0.743200	0.888160
0.743400	0.887870
0.743600	0.887780
0.743800	0.887680
0.744000	0.887580
0.744200	0.887490
0.744400	0.887390
0.744600	0.887100
0.744800	0.887100
0.745000	0.887200
0.745200	0.887010
0.745400	0.887290
0.745600	0.887390
0.745800	0.887290
0.746000	0.887390
0.746200	0.887390
0.746400	0.887490
0.746600	0.887680
0.746800	0.887970
0.747000	0.888160
0.747200	0.888350
0.747400	0.888740
0.747600	0.889020
0.747800	0.889220
0.748000	0.889500
0.748200	0.890080
0.748400	0.890470
0.748600	0.890660
0.748800	0.891330
0.749000	0.891810
0.749200	0.892200
0.749400	0.892580
0.749600	0.892870
0.749800	0.893060
0.750000	0.893640
0.750200	0.893920
0.750400	0.894500
0.750600	0.895270
0.750800	0.895560
0.751000	0.896230
0.751200	0.896900
0.751400	0.897580
0.751600	0.898060
0.751800	0.898730
0.752000	0.899110
0.752200	0.899790
0.752400	0.900650
0.752600	0.901320
0.752800	0.901900
0.753000	0.902670
0.753200	0.903250
0.753400	0.903820
0.753600	0.904210
0.753800	0.904690
0.754000	0.904880
0.754200	0.905550
0.754400	0.906130
0.754600	0.906710
0.754800	0.907470
0.755000	0.908340
0.755200	0.908820
0.755400	0.909490
0.755600	0.910550
0.755800	0.911030
0.756000	0.911510
0.756200	0.912370
0.756400	0.912850
0.756600	0.913430
0.756800	0.914010
0.757000	0.914870
0.757200	0.915930
0.757400	0.916600
0.757600	0.917180
0.757800	0.917180
0.758000	0.917760
0.758200	0.918240
0.758400	0.918720
0.758600	0.919100
0.758800	0.919680
0.759000	0.920350
0.759200	0.921020
0.759400	0.921500
0.759600	0.921890
0.759800	0.922270
0.760000	0.922940
0.760200	0.923420
0.760400	0.923910
0.760600	0.924290
0.760800	0.924770
0.761000	0.925440
0.761200	0.925730
0.761400	0.926400
0.761600	0.926880
0.761800	0.927270
0.762000	0.928040
0.762200	0.928330
0.762400	0.928810
0.762600	0.929290
0.762800	0.929770
0.763000	0.929960
0.763200	0.930440
0.763400	0.930540
0.763600	0.930820
0.763800	0.931500
0.764000	0.931780
0.764200	0.932260
0.764400	0.932460
0.764600	0.932840
0.764800	0.933130
0.765000	0.933230
0.765200	0.933320
0.765400	0.933420
0.765600	0.933800
0.765800	0.934090
0.766000	0.934570
0.766200	0.935050
0.766400	0.935340
0.766600	0.935530
0.766800	0.935820
0.767000	0.936010
0.767200	0.936200
0.767400	0.936300
0.767600	0.936590
0.767800	0.936970
0.768000	0.937070
0.768200	0.937360
0.768400	0.937550
0.768600	0.937550
0.768800	0.937840
0.769000	0.937930
0.769200	0.938320
0.769400	0.938410
0.769600	0.938900
0.769800	0.938800
0.770000	0.938990
0.770200	0.939180
0.770400	0.939090
0.770600	0.939090
0.770800	0.939280
0.771000	0.939090
0.771200	0.939470
0.771400	0.939570
0.771600	0.939570
0.771800	0.939380
0.772000	0.939660
0.772200	0.939860
0.772400	0.939760
0.772600	0.939860
0.772800	0.939760
0.773000	0.939950
0.773200	0.940140
0.773400	0.940240
0.773600	0.940340
0.773800	0.940620
0.774000	0.940530
0.774200	0.940340
0.774400	0.940430
0.774600	0.940620
0.774800	0.940720
0.775000	0.940820
0.775200	0.940820
0.775400	0.940620
0.775600	0.940530
0.775800	0.940430
0.776000	0.940430
0.776200	0.940430
0.776400	0.940340
0.776600	0.940340
0.776800	0.940140
0.777000	0.940240
0.777200	0.940620
0.777400	0.940530
0.777600	0.940720
0.777800	0.940820
0.778000	0.940620
0.778200	0.940620
0.778400	0.940240
0.778600	0.939950
0.778800	0.939950
0.779000	0.939860
0.779200	0.939760
0.779400	0.939760
0.779600	0.939950
0.779800	0.939760
0.780000	0.939470
0.780200	0.939470
0.780400	0.938990
0.780600	0.939180
0.780800	0.938990
0.781000	0.938990
0.781200	0.938900
0.781400	0.938800
0.781600	0.938610
0.781800	0.938510
0.782000	0.938510
0.782200	0.938410
0.782400	0.938220
0.782600	0.938130
0.782800	0.937930
0.783000	0.938030
0.783200	0.937650
0.783400	0.937840
0.783600	0.937840
0.783800	0.937550
0.784000	0.937260
0.784200	0.936970
0.784400	0.936490
0.784600	0.936590
0.784800	0.936200
0.785000	0.936110
0.785200	0.936010
0.785400	0.935720
0.785600	0.935720
0.785800	0.935720
0.786000	0.936110
0.786200	0.936010
0.786400	0.935820
0.786600	0.935720
0.786800	0.935440
0.787000	0.935150
0.787200	0.934860
0.787400	0.934670
0.787600	0.934380
0.787800	0.934470
0.788000	0.933710
0.788200	0.933420
0.788400	0.933230
0.788600	0.933030
0.788800	0.932840
0.789000	0.932840
0.789200	0.932940
0.789400	0.933030
0.789600	0.932940
0.789800	0.932750
0.790000	0.932650
0.790200	0.932550
0.790400	0.932460
0.790600	0.932070
0.790800	0.931780
0.791000	0.931400
0.791200	0.931210
0.791400	0.930730
0.791600	0.930730
0.791800	0.930730
0.792000	0.930630
0.792200	0.930250
0.792400	0.929960
0.792600	0.929860
0.792800	0.929570
0.793000	0.929670
0.793200	0.929570
0.793400	0.929190
0.793600	0.929090
0.793800	0.928710
