; MKO consortium cold L' filter profile convolved with MK atmosphere
;  lambda microns  transmission %
;
          3.2004         -0.47434
           3.201        -0.266534
          3.2015        -0.328341
          3.2021        -0.242478
          3.2027        -0.216979
          3.2032        -0.193462
          3.2038        -0.156151
          3.2044        -0.010006
          3.2049         0.094389
          3.2055         0.156615
          3.2061           0.1039
          3.2066        -0.001641
          3.2072        -0.078504
          3.2078        -0.169276
          3.2083        -0.172368
          3.2089         0.051099
          3.2095         0.070775
            3.21        -0.158885
          3.2106        -0.147846
          3.2112        -0.087209
          3.2117         -0.11151
          3.2123        -0.141245
          3.2129        -0.163312
          3.2134        -0.213502
           3.214        -0.217635
          3.2146         -0.07243
          3.2151         0.050199
          3.2157         0.067134
          3.2163         0.034589
          3.2169        -0.019455
          3.2174        -0.106773
           3.218        -0.150144
          3.2186        -0.151178
          3.2191        -0.185684
          3.2197         -0.13318
          3.2203        -0.141033
          3.2209        -0.294115
          3.2214        -0.261968
           3.222        -0.066976
          3.2226         0.047036
          3.2231         0.004022
          3.2237        -0.022926
          3.2243         0.010785
          3.2249        -0.030669
          3.2254        -0.091761
           3.226        -0.167612
          3.2266        -0.255447
          3.2272        -0.105342
          3.2277         0.140881
          3.2283         0.147046
          3.2289         0.011142
          3.2294        -0.061654
            3.23        -0.091296
          3.2306         0.008587
          3.2312         0.045479
          3.2317         -0.06547
          3.2323        -0.052227
          3.2329         0.064039
          3.2335         0.141569
          3.2341         0.311776
          3.2346         0.218749
          3.2352        -0.000184
          3.2358        -0.128232
          3.2364         -0.12431
          3.2369        -0.008488
          3.2375        -0.007157
          3.2381         0.095567
          3.2387         0.148845
          3.2392        -0.021327
          3.2398        -0.109279
          3.2404        -0.034532
           3.241         0.176793
          3.2416         0.187643
          3.2421         0.237944
          3.2427         0.340658
          3.2433         0.219077
          3.2439         0.075248
          3.2445         0.011886
           3.245         0.017964
          3.2456         0.046917
          3.2462         0.003714
          3.2468         0.005131
          3.2474         0.168543
          3.2479         0.298452
          3.2485         0.298129
          3.2491         0.233192
          3.2497         0.203938
          3.2503          0.20288
          3.2508         0.127705
          3.2514         0.046846
           3.252         0.119195
          3.2526         0.308975
          3.2532         0.351255
          3.2538         0.225606
          3.2543         0.239557
          3.2549         0.337056
          3.2555         0.392396
          3.2561         0.437632
          3.2567         0.353655
          3.2573         0.201445
          3.2578         0.272622
          3.2584         0.317892
           3.259          0.10562
          3.2596         0.002563
          3.2602        -0.033139
          3.2608         0.062936
          3.2614         0.173877
          3.2619         0.139036
          3.2625         0.021912
          3.2631         0.006892
          3.2637        -0.057933
          3.2643        -0.159756
          3.2649        -0.171255
          3.2655        -0.221663
          3.2661        -0.167108
          3.2666        -0.066724
          3.2672        -0.038068
          3.2678        -0.016915
          3.2684          0.05952
           3.269         0.052693
          3.2696        -0.115449
          3.2702        -0.097789
          3.2708          0.05452
          3.2714         0.060763
          3.2719         0.035638
          3.2725         0.122198
          3.2731         0.185986
          3.2737         0.102105
          3.2743         0.038697
          3.2749         0.148035
          3.2755         0.224464
          3.2761         0.198628
          3.2767         0.305317
          3.2773          0.34054
          3.2778         0.083691
          3.2784        -0.081119
           3.279         0.101525
          3.2796         0.281796
          3.2802         0.384031
          3.2808         0.431303
          3.2814         0.357633
           3.282         0.230076
          3.2826         0.109615
          3.2832        -0.029704
          3.2838        -0.033689
          3.2844          0.14428
           3.285          0.20786
          3.2856           0.0793
          3.2862         0.068574
          3.2868         0.234999
          3.2873         0.359721
          3.2879         0.463719
          3.2885         0.635018
          3.2891          0.60092
          3.2897         0.377922
          3.2903         0.341398
          3.2909         0.327503
          3.2915         0.287572
          3.2921         0.297556
          3.2927          0.24075
          3.2933          0.29688
          3.2939          0.40297
          3.2945          0.38667
          3.2951         0.242197
          3.2957         0.215093
          3.2963         0.233237
          3.2969         0.190771
          3.2975         0.277249
          3.2981         0.393118
          3.2987         0.473836
          3.2993         0.407806
          3.2999         0.289404
          3.3005         0.311512
          3.3011          0.31512
          3.3017         0.403532
          3.3023         0.461672
          3.3029         0.453202
          3.3035         0.727158
          3.3041         0.621739
          3.3047         0.367078
          3.3053         0.603707
          3.3059         0.882644
          3.3065         0.949407
          3.3071         0.963695
          3.3077          0.89443
          3.3083         0.706134
          3.3089         0.588717
          3.3095         0.614105
          3.3101         0.610598
          3.3107         0.637047
          3.3113         0.581702
          3.3119         0.413347
          3.3125         0.316985
          3.3131         0.193743
          3.3138         0.097951
          3.3144         0.092556
           3.315         0.091758
          3.3156         0.086397
          3.3162          0.10697
          3.3168         0.111338
          3.3174         0.103494
           3.318         0.158651
          3.3186         0.271682
          3.3192         0.322445
          3.3198         0.357371
          3.3204         0.482349
           3.321         0.577895
          3.3216         0.595601
          3.3222         0.614789
          3.3228         0.752973
          3.3235         0.932556
          3.3241         0.825366
          3.3247         0.815656
          3.3253          1.11493
          3.3259          1.25248
          3.3265          1.25385
          3.3271          1.16278
          3.3277         0.942334
          3.3283         0.874627
          3.3289         0.898318
          3.3296         0.844644
          3.3302         0.958609
          3.3308         0.921314
          3.3314         0.959479
           3.332          1.22086
          3.3326          1.10336
          3.3332          1.05985
          3.3338          1.25687
          3.3344          1.49137
          3.3351          1.57466
          3.3357          1.35786
          3.3363          1.46286
          3.3369          1.43165
          3.3375          1.37296
          3.3381          1.56392
          3.3387          1.62479
          3.3394          1.57793
            3.34          1.46576
          3.3406          1.38776
          3.3412          1.54743
          3.3418          1.62852
          3.3424          1.60878
           3.343          1.62309
          3.3437          1.66773
          3.3443           1.5845
          3.3449           1.4648
          3.3455          1.52384
          3.3461          1.66273
          3.3467          1.76528
          3.3474          1.88922
           3.348          1.93399
          3.3486          2.05854
          3.3492          2.17384
          3.3498          2.09499
          3.3504          1.99588
          3.3511          2.08007
          3.3517          2.29741
          3.3523          2.49087
          3.3529          2.48202
          3.3535          2.31693
          3.3542          2.14631
          3.3548          1.98216
          3.3554          1.79895
           3.356          1.84098
          3.3566          1.82825
          3.3573          1.72114
          3.3579          1.66335
          3.3585          1.83469
          3.3591          2.24121
          3.3597          2.59409
          3.3604           2.6571
           3.361          2.66733
          3.3616          2.69909
          3.3622           2.6415
          3.3629          2.59812
          3.3635          2.63744
          3.3641          2.82058
          3.3647          2.97011
          3.3654          3.01727
           3.366          2.90258
          3.3666          3.08207
          3.3672          3.29952
          3.3679           2.8895
          3.3685          2.48714
          3.3691          2.50585
          3.3697          2.74154
          3.3704            3.171
           3.371          3.35164
          3.3716           3.3751
          3.3722          3.46392
          3.3729          3.79702
          3.3735          4.26354
          3.3741          4.43987
          3.3747          4.52822
          3.3754          4.40641
           3.376           4.1865
          3.3766          4.32029
          3.3773          4.43137
          3.3779          4.22131
          3.3785          4.00235
          3.3791          3.89253
          3.3798          3.85095
          3.3804          3.99363
           3.381          4.12497
          3.3817          4.20469
          3.3823          4.33885
          3.3829          4.70928
          3.3835           5.0222
          3.3842          5.45343
          3.3848          5.92105
          3.3854          6.08023
          3.3861          6.08748
          3.3867          6.47352
          3.3873          6.95469
           3.388          7.30869
          3.3886          7.86982
          3.3892          8.05034
          3.3899          7.61685
          3.3905          6.96651
          3.3911          6.49751
          3.3918          6.17836
          3.3924          6.33242
           3.393          6.91661
          3.3937          7.76817
          3.3943          8.82536
          3.3949          9.65379
          3.3956          10.4906
          3.3962          10.9951
          3.3968          11.4863
          3.3975          11.7702
          3.3981          12.0991
          3.3988          12.5054
          3.3994          13.0072
             3.4          13.6681
          3.4007          14.0799
          3.4013          14.2787
          3.4019          13.7841
          3.4026          12.8375
          3.4032          12.1727
          3.4038          11.6877
          3.4045          11.6592
          3.4051          12.7013
          3.4058          14.7084
          3.4064          15.9862
           3.407          17.4294
          3.4077          18.8517
          3.4083          19.5771
           3.409          20.6578
          3.4096           22.061
          3.4102          23.0752
          3.4109          23.9572
          3.4115          24.9367
          3.4122          25.8675
          3.4128          26.7738
          3.4135          26.7871
          3.4141          26.4159
          3.4147          25.2273
          3.4154          23.9106
           3.416          23.9992
          3.4167          24.7258
          3.4173          27.8605
          3.4179          31.1419
          3.4186          35.1435
          3.4192          37.8471
          3.4199          40.1356
          3.4205          41.5362
          3.4212           43.163
          3.4218          44.4252
          3.4225          45.2472
          3.4231          46.1339
          3.4238          46.9931
          3.4244          47.5418
           3.425          47.4682
          3.4257          46.5745
          3.4263          45.6088
           3.427          43.8629
          3.4276          43.7203
          3.4283          44.0662
          3.4289          46.5211
          3.4296           49.813
          3.4302          54.2437
          3.4309          58.7734
          3.4315          62.6159
          3.4322           65.329
          3.4328          67.1299
          3.4335          68.4516
          3.4341          69.8576
          3.4348            70.87
          3.4354          71.5395
          3.4361          72.4322
          3.4367           73.181
          3.4374          73.4026
           3.438          72.5323
          3.4387          70.2552
          3.4393          68.2434
            3.44          65.9027
          3.4406          67.1092
          3.4413          68.6173
          3.4419          71.9279
          3.4426          75.8532
          3.4432          79.4617
          3.4439          81.4241
          3.4445          82.3519
          3.4452          82.7448
          3.4458          82.5223
          3.4465          82.8424
          3.4472          83.3719
          3.4478          83.6116
          3.4485          83.7753
          3.4491          84.1526
          3.4498          84.3114
          3.4504          84.0993
          3.4511           82.969
          3.4517          81.4023
          3.4524          79.6077
          3.4531          77.8086
          3.4537          77.8613
          3.4544          78.7101
           3.455          80.8828
          3.4557          83.5879
          3.4563          86.0599
           3.457          87.7965
          3.4577           89.047
          3.4583           89.822
           3.459          90.3533
          3.4596          90.0303
          3.4603          89.6903
           3.461          89.4351
          3.4616          88.9751
          3.4623          88.1562
          3.4629          87.2703
          3.4636          85.9983
          3.4643          84.5262
          3.4649          83.1568
          3.4656          82.9381
          3.4662          83.0365
          3.4669          83.9305
          3.4676          85.1799
          3.4682          86.5447
          3.4689          87.7615
          3.4696          89.1012
          3.4702          89.7981
          3.4709          89.7554
          3.4715          89.1306
          3.4722          88.6202
          3.4729          88.1346
          3.4735          87.7951
          3.4742          87.5353
          3.4749          87.2509
          3.4755          86.9671
          3.4762          86.4346
          3.4769          85.9334
          3.4775          86.1218
          3.4782          85.8797
          3.4789          85.9817
          3.4795          86.7699
          3.4802          87.7571
          3.4809          88.6268
          3.4815          89.1923
          3.4822          89.6686
          3.4829          89.9019
          3.4835          89.7429
          3.4842          89.4687
          3.4849           89.327
          3.4855          89.1193
          3.4862          88.5185
          3.4869          87.9761
          3.4876          87.4736
          3.4882          87.2542
          3.4889          87.2005
          3.4896          87.3589
          3.4902          87.4416
          3.4909          87.9768
          3.4916          88.8455
          3.4923           89.078
          3.4929          89.2958
          3.4936           89.854
          3.4943          90.3631
          3.4949          90.7958
          3.4956          91.0707
          3.4963          90.9164
           3.497          90.3361
          3.4976           90.035
          3.4983          89.6764
           3.499          89.3593
          3.4997          89.3775
          3.5003           89.018
           3.501          88.7477
          3.5017          88.5419
          3.5024          88.3429
           3.503          88.4903
          3.5037          88.6703
          3.5044          88.7894
          3.5051          89.0418
          3.5057          89.4346
          3.5064          89.8291
          3.5071          89.7967
          3.5078          89.4788
          3.5085          88.9534
          3.5091          88.4877
          3.5098          87.8155
          3.5105          87.7071
          3.5112          87.6132
          3.5118           87.523
          3.5125           87.529
          3.5132          88.0108
          3.5139          88.6176
          3.5146          88.8331
          3.5152          88.7478
          3.5159          88.4781
          3.5166          88.3781
          3.5173          88.5568
           3.518          88.3744
          3.5187          88.0225
          3.5193          88.0848
            3.52          88.1418
          3.5207          87.9624
          3.5214          87.6641
          3.5221           87.386
          3.5227          87.2474
          3.5234          87.5796
          3.5241          87.3992
          3.5248          86.7518
          3.5255          86.2808
          3.5262          86.0324
          3.5269          85.6291
          3.5275          85.2342
          3.5282            85.12
          3.5289          85.1558
          3.5296          85.6042
          3.5303          85.8059
           3.531          85.3755
          3.5317          84.7172
          3.5323          84.1842
           3.533          83.2318
          3.5337          82.4104
          3.5344           81.599
          3.5351          80.9282
          3.5358          80.3509
          3.5365          80.1541
          3.5372          80.4664
          3.5379          80.8476
          3.5385          80.9502
          3.5392          80.5423
          3.5399          80.1833
          3.5406          80.0907
          3.5413          80.1151
           3.542           80.119
          3.5427          80.2834
          3.5434           80.916
          3.5441          81.5906
          3.5448          81.6741
          3.5455          81.2732
          3.5461          81.3325
          3.5468          81.6706
          3.5475          81.7786
          3.5482          82.3097
          3.5489          82.9795
          3.5496          83.6504
          3.5503          84.1771
           3.551          84.2314
          3.5517          83.6485
          3.5524          83.1854
          3.5531          82.7364
          3.5538          82.5313
          3.5545          82.7772
          3.5552          82.9543
          3.5559          83.1262
          3.5566          83.8525
          3.5573          84.7366
           3.558          84.5676
          3.5587          84.5078
          3.5594          84.5013
          3.5601          84.4212
          3.5608          84.8764
          3.5615          85.2218
          3.5622          85.4291
          3.5629           85.416
          3.5636          85.2539
          3.5643          84.7023
          3.5649          83.9637
          3.5657          83.0525
          3.5664          82.5037
          3.5671          82.3098
          3.5678          82.1495
