#Original Data according to NDC   
#300K, 0 degree incidence
#
#
#CH4_S   
# Wavelength(micron)   Transmission
0.400000   0
0.401000   0
0.402000   0
0.403000   0
0.404000   0
0.405000   0
0.406000   0
0.407000   0
0.408000   0
0.409000   0
0.410000   0
0.411000   0
0.412000   0
0.413000   0
0.414000   0
0.415000   0
0.416000   0
0.417000   0
0.418000   0
0.419000   0
0.420000   0
0.421000   0
0.422000   0
0.423000   0
0.424000   0
0.425000   0
0.426000   0
0.427000   0
0.428000   0
0.429000   0
0.430000   0
0.431000   0
0.432000   0
0.433000   0
0.434000   0
0.435000   0
0.436000   0
0.437000   0
0.438000   0
0.439000   0
0.440000   0
0.441000   0
0.442000   0
0.443000   0
0.444000   0
0.445000   0
0.446000   0
0.447000   0
0.448000   0
0.449000   0
0.450000   0
0.451000   0
0.452000   0
0.453000   0
0.454000   0
0.455000   0
0.456000   0
0.457000   0
0.458000   0
0.459000   0
0.460000   0.00005
0.461000   0
0.462000   0
0.463000   0
0.464000   0
0.465000   0
0.466000   0
0.467000   0
0.468000   0
0.469000   0
0.470000   0
0.471000   0
0.472000   0
0.473000   0
0.474000   0
0.475000   0
0.476000   0
0.477000   0
0.478000   0
0.479000   0
0.480000   0
0.481000   0
0.482000   0
0.483000   0
0.484000   0
0.485000   0
0.486000   0
0.487000   0
0.488000   0
0.489000   0
0.490000   0
0.491000   0
0.492000   0
0.493000   0
0.494000   0
0.495000   0
0.496000   0.00005
0.497000   0.00005
0.498000   0.00005
0.499000   0.00005
0.500000   0.00005
0.501000   0.00005
0.502000   0.00005
0.503000   0.00005
0.504000   0
0.505000   0
0.506000   0
0.507000   0
0.508000   0
0.509000   0
0.510000   0
0.511000   0
0.512000   0
0.513000   0
0.514000   0
0.515000   0
0.516000   0
0.517000   0
0.518000   0
0.519000   0
0.520000   0
0.521000   0
0.522000   0
0.523000   0
0.524000   0
0.525000   0
0.526000   0
0.527000   0
0.528000   0
0.529000   0
0.530000   0
0.531000   0
0.532000   0
0.533000   0
0.534000   0
0.535000   0
0.536000   0
0.537000   0
0.538000   0
0.539000   0
0.540000   0
0.541000   0
0.542000   0
0.543000   0
0.544000   0
0.545000   0
0.546000   0
0.547000   0
0.548000   0
0.549000   0
0.550000   0
0.551000   0
0.552000   0
0.553000   0
0.554000   0
0.555000   0
0.556000   0
0.557000   0
0.558000   0
0.559000   0
0.560000   0
0.561000   0
0.562000   0
0.563000   0
0.564000   0
0.565000   0
0.566000   0
0.567000   0
0.568000   0
0.569000   0
0.570000   0
0.571000   0
0.572000   0
0.573000   0
0.574000   0
0.575000   0
0.576000   0
0.577000   0
0.578000   0
0.579000   0
0.580000   0
0.581000   0
0.582000   0
0.583000   0
0.584000   0
0.585000   0
0.586000   0
0.587000   0
0.588000   0
0.589000   0
0.590000   0
0.591000   0
0.592000   0
0.593000   0
0.594000   0
0.595000   0
0.596000   0
0.597000   0
0.598000   0
0.599000   0
0.600000   0
0.601000   0
0.602000   0
0.603000   0
0.604000   0
0.605000   0
0.606000   0
0.607000   0
0.608000   0
0.609000   0
0.610000   0
0.611000   0
0.612000   0
0.613000   0
0.614000   0
0.615000   0
0.616000   0
0.617000   0
0.618000   0
0.619000   0
0.620000   0
0.621000   0
0.622000   0
0.623000   0
0.624000   0
0.625000   0
0.626000   0
0.627000   0
0.628000   0
0.629000   0
0.630000   0
0.631000   0
0.632000   0
0.633000   0
0.634000   0
0.635000   0
0.636000   0
0.637000   0
0.638000   0
0.639000   0
0.640000   0
0.641000   0
0.642000   0
0.643000   0
0.644000   0
0.645000   0
0.646000   0
0.647000   0
0.648000   0
0.649000   0
0.650000   0
0.651000   0
0.652000   0
0.653000   0
0.654000   0
0.655000   0
0.656000   0
0.657000   0
0.658000   0
0.659000   0
0.660000   0
0.661000   0
0.662000   0
0.663000   0
0.664000   0
0.665000   0
0.666000   0
0.667000   0
0.668000   0
0.669000   0
0.670000   0
0.671000   0
0.672000   0
0.673000   0
0.674000   0
0.675000   0
0.676000   0
0.677000   0
0.678000   0
0.679000   0
0.680000   0
0.681000   0
0.682000   0
0.683000   0
0.684000   0
0.685000   0
0.686000   0
0.687000   0
0.688000   0
0.689000   0
0.690000   0
0.691000   0
0.692000   0
0.693000   0
0.694000   0
0.695000   0
0.696000   0
0.697000   0
0.698000   0
0.699000   0
0.700000   0
0.701000   0
0.702000   0
0.703000   0
0.704000   0
0.705000   0
0.706000   0
0.707000   0
0.708000   0
0.709000   0
0.710000   0
0.711000   0
0.712000   0
0.713000   0
0.714000   0
0.715000   0
0.716000   0
0.717000   0
0.718000   0
0.719000   0
0.720000   0
0.721000   0
0.722000   0
0.723000   0
0.724000   0
0.725000   0
0.726000   0
0.727000   0
0.728000   0
0.729000   0
0.730000   0
0.731000   0
0.732000   0
0.733000   0
0.734000   0
0.735000   0
0.736000   0
0.737000   0
0.738000   0
0.739000   0
0.740000   0
0.741000   0
0.742000   0
0.743000   0
0.744000   0
0.745000   0
0.746000   0
0.747000   0
0.748000   0
0.749000   0
0.750000   0
0.751000   0
0.752000   0
0.753000   0
0.754000   0
0.755000   0
0.756000   0
0.757000   0
0.758000   0
0.759000   0
0.760000   0
0.761000   0
0.762000   0
0.763000   0
0.764000   0
0.765000   0
0.766000   0
0.767000   0
0.768000   0
0.769000   0
0.770000   0
0.771000   0
0.772000   0
0.773000   0
0.774000   0
0.775000   0
0.776000   0
0.777000   0
0.778000   0
0.779000   0
0.780000   0
0.781000   0
0.782000   0
0.783000   0
0.784000   0
0.785000   0
0.786000   0
0.787000   0
0.788000   0
0.789000   0
0.790000   0
0.791000   0
0.792000   0
0.793000   0.00005
0.794000   0
0.795000   0.00005
0.796000   0.00005
0.797000   0.00005
0.798000   0.00005
0.799000   0.00005
0.800000   0
0.801000   0
0.802000   0
0.803000   0
0.804000   0
0.805000   0
0.806000   0
0.807000   0
0.808000   0
0.809000   0
0.810000   0
0.811000   0
0.812000   0
0.813000   0
0.814000   0
0.815000   0
0.816000   0
0.817000   0
0.818000   0
0.819000   0
0.820000   0
0.821000   0
0.822000   0
0.823000   0.00005
0.824000   0.00005
0.825000   0
0.826000   0.00005
0.827000   0.00005
0.828000   0
0.829000   0
0.830000   0
0.831000   0.00005
0.832000   0
0.833000   0.00005
0.834000   0.00005
0.835000   0
0.836000   0
0.837000   0
0.838000   0
0.839000   0
0.840000   0
0.841000   0
0.842000   0
0.843000   0
0.844000   0
0.845000   0
0.846000   0
0.847000   0
0.848000   0
0.849000   0
0.850000   0
0.851000   0
0.852000   0
0.853000   0
0.854000   0
0.855000   0
0.856000   0
0.857000   0
0.858000   0
0.859000   0.0003
0.860000   0.00065
0.861000   0.00045
0.862000   0.00055
0.863000   0.00035
0.864000   0.00005
0.865000   0.0001
0.866000   0.0004
0.867000   0.00045
0.868000   0.00025
0.869000   0.0004
0.870000   0.0008
0.871000   0.00075
0.872000   0.00025
0.873000   0.0003
0.874000   0.0006
0.875000   0.0006
0.876000   0.00025
0.877000   0.00015
0.878000   0.0002
0.879000   0.00015
0.880000   0.00025
0.881000   0.0006
0.882000   0.0002
0.883000   0.0001
0.884000   0.0006
0.885000   0.00065
0.886000   0.0002
0.887000   0.00025
0.888000   0.00065
0.889000   0.00115
0.890000   0.00085
0.891000   0.0007
0.892000   0.00105
0.893000   0.0006
0.894000   0.0002
0.895000   0.0004
0.896000   0.0005
0.897000   0.00025
0.898000   0.0005
0.899000   0.00095
0.900000   0.00055
0.901000   0.0005
0.902000   0.00075
0.903000   0.0007
0.904000   0.00065
0.905000   0.0008
0.906000   0.00105
0.907000   0.0004
0.908000   0.00015
0.909000   0.00025
0.910000   0.0004
0.911000   0.00035
0.912000   0.0003
0.913000   0.00065
0.914000   0.0009
0.915000   0.0004
0.916000   0.0004
0.917000   0.0006
0.918000   0.0005
0.919000   0.0003
0.920000   0.0006
0.921000   0.00045
0.922000   0.00015
0.923000   0.00015
0.924000   0.0006
0.925000   0.0006
0.926000   0.0004
0.927000   0.00035
0.928000   0.0004
0.929000   0.00065
0.930000   0.0004
0.931000   0.0006
0.932000   0.0008
0.933000   0.0007
0.934000   0.0006
0.935000   0.00065
0.936000   0.0003
0.937000   0
0.938000   0.00035
0.939000   0.001
0.940000   0.0002
0.941000   0.00005
0.942000   0.0005
0.943000   0.0007
0.944000   0.0006
0.945000   0.0005
0.946000   0.0007
0.947000   0.0006
0.948000   0.0004
0.949000   0.0005
0.950000   0.0009
0.951000   0.0009
0.952000   0.00055
0.953000   0.00045
0.954000   0.0004
0.955000   0.00025
0.956000   0.00055
0.957000   0.00065
0.958000   0.00025
0.959000   0.0005
0.960000   0.00095
0.961000   0.0008
0.962000   0.00045
0.963000   0.00005
0.964000   0.00025
0.965000   0.0005
0.966000   0.0004
0.967000   0.0006
0.968000   0.00055
0.969000   0.0006
0.970000   0.00065
0.971000   0.00055
0.972000   0.0007
0.973000   0.0004
0.974000   0.0007
0.975000   0.0008
0.976000   0.0005
0.977000   0.0003
0.978000   0.0008
0.979000   0.00095
0.980000   0.0001
0.981000   0
0.982000   0.0001
0.983000   0.00025
0.984000   0.00025
0.985000   0.0004
0.986000   0.0005
0.987000   0.0006
0.988000   0.00055
0.989000   0.00075
0.990000   0.0007
0.991000   0.00045
0.992000   0.00055
0.993000   0.0009
0.994000   0.00065
0.995000   0.00045
0.996000   0.0007
0.997000   0.00045
0.998000   0.00005
0.999000   0.00025
1.00000   0.00085
1.00100   0.00025
1.00200   0.0002
1.00300   0.00055
1.00400   0.00055
1.00500   0.0002
1.00600   0.00035
1.00700   0.0005
1.00800   0.00045
1.00900   0.0006
1.01000   0.0009
1.01100   0.0006
1.01200   0.00025
1.01300   0.00025
1.01400   0.0007
1.01500   0.0006
1.01600   0.0001
1.01700   0.0003
1.01800   0.00065
1.01900   0.00065
1.02000   0.00035
1.02100   0.00035
1.02200   0.00055
1.02300   0.0004
1.02400   0.00055
1.02500   0.00055
1.02600   0.00035
1.02700   0.0002
1.02800   0.00045
1.02900   0.0006
1.03000   0.0005
1.03100   0.00045
1.03200   0.00065
1.03300   0.00075
1.03400   0.00025
1.03500   0.0001
1.03600   0.0003
1.03700   0.00035
1.03800   0
1.03900   0.0002
1.04000   0.00055
1.04100   0.00055
1.04200   0.00045
1.04300   0.0005
1.04400   0.00035
1.04500   0.00075
1.04600   0.001
1.04700   0.00075
1.04800   0.0004
1.04900   0.00035
1.05000   0.00055
1.05100   0.0007
1.05200   0.00055
1.05300   0.0004
1.05400   0.00075
1.05500   0.00065
1.05600   0.0003
1.05700   0.0003
1.05800   0.001
1.05900   0.00105
1.06000   0.0007
1.06100   0.00095
1.06200   0.0008
1.06300   0.00065
1.06400   0.0009
1.06500   0.00055
1.06600   0.00005
1.06700   0.0002
1.06800   0.00055
1.06900   0.00025
1.07000   0
1.07100   0.0001
1.07200   0.0003
1.07300   0.00045
1.07400   0
1.07500   0.0002
1.07600   0.0004
1.07700   0.00045
1.07800   0.0005
1.07900   0.00075
1.08000   0.0006
1.08100   0.0005
1.08200   0.00075
1.08300   0.001
1.08400   0.00055
1.08500   0.00055
1.08600   0.0006
1.08700   0.0006
1.08800   0.00045
1.08900   0.00045
1.09000   0.00075
1.09100   0.0006
1.09200   0.0001
1.09300   0.00005
1.09400   0.0004
1.09500   0.0005
1.09600   0.00025
1.09700   0.0003
1.09800   0.00025
1.09900   0.00025
1.10000   0.0006
1.10100   0.0011
1.10200   0.0007
1.10300   0.0005
1.10400   0.0008
1.10500   0.00055
1.10600   0.0004
1.10700   0.0002
1.10800   0.0006
1.10900   0.0008
1.11000   0.0002
1.11100   0.00005
1.11200   0.00025
1.11300   0.0004
1.11400   0.00045
1.11500   0.0007
1.11600   0.00075
1.11700   0.0004
1.11800   0.0008
1.11900   0.0012
1.12000   0.0005
1.12100   0.00035
1.12200   0.0008
1.12300   0.00095
1.12400   0.0005
1.12500   0.0008
1.12600   0.0011
1.12700   0.00065
1.12800   0.0003
1.12900   0.00015
1.13000   0.00005
1.13100   0.00035
1.13200   0.0002
1.13300   0.0007
1.13400   0.00105
1.13500   0.00055
1.13600   0.0004
1.13700   0.00015
1.13800   0
1.13900   0
1.14000   0
1.14100   0
1.14200   0
1.14300   0.0007
1.14400   0.00125
1.14500   0.00095
1.14600   0.0007
1.14700   0.0005
1.14800   0.0005
1.14900   0.00045
1.15000   0.0002
1.15100   0.0001
1.15200   0.0002
1.15300   0.00025
1.15400   0.0001
1.15500   0.0002
1.15600   0.0001
1.15700   0
1.15800   0.00045
1.15900   0.0009
1.16000   0.00035
1.16100   0.00035
1.16200   0.00065
1.16300   0.0005
1.16400   0.0002
1.16500   0
1.16600   0
1.16700   0
1.16800   0
1.16900   0.00065
1.17000   0.00095
1.17100   0.00095
1.17200   0.0009
1.17300   0.00085
1.17400   0.0007
1.17500   0.0005
1.17600   0.00075
1.17700   0.0008
1.17800   0.00015
1.17900   0.00015
1.18000   0.00045
1.18100   0.00045
1.18200   0
1.18300   0.00015
1.18400   0.0004
1.18500   0
1.18600   0
1.18700   0
1.18800   0
1.18900   0
1.19000   0.0002
1.19100   0.0002
1.19200   0.0002
1.19300   0.0004
1.19400   0.0006
1.19500   0.0006
1.19600   0.00055
1.19700   0.0005
1.19800   0.001
1.19900   0.00115
1.20000   0.0007
1.20100   0.00125
1.20200   0.00185
1.20300   0.0019
1.20400   0.00145
1.20500   0.0015
1.20600   0.00115
1.20700   0.0005
1.20800   0.0007
1.20900   0.0011
1.21000   0.0007
1.21100   0.0005
1.21200   0.001
1.21300   0.00105
1.21400   0.0003
1.21500   0.0002
1.21600   0.0005
1.21700   0.0008
1.21800   0.00035
1.21900   0.0002
1.22000   0.0005
1.22100   0.0006
1.22200   0.00015
1.22300   0.00045
1.22400   0.00065
1.22500   0.0004
1.22600   0.0006
1.22700   0.00095
1.22800   0.0006
1.22900   0.0009
1.23000   0.00105
1.23100   0.00095
1.23200   0.0006
1.23300   0.0008
1.23400   0.0011
1.23500   0.00125
1.23600   0.0014
1.23700   0.00185
1.23800   0.0029
1.23900   0.00375
1.24000   0.0032
1.24100   0.00295
1.24200   0.00275
1.24300   0.0015
1.24400   0.00115
1.24500   0.00125
1.24600   0.00105
1.24700   0.0007
1.24800   0.00105
1.24900   0.0013
1.25000   0.00085
1.25100   0.00105
1.25200   0.0015
1.25300   0.0012
1.25400   0.0008
1.25500   0.00075
1.25600   0.001
1.25700   0.0011
1.25800   0.00065
1.25900   0.0008
1.26000   0.0009
1.26100   0.0006
1.26200   0.0003
1.26300   0.0004
1.26400   0.0004
1.26500   0.00015
1.26600   0.00035
1.26700   0.00065
1.26800   0.00025
1.26900   0.0006
1.27000   0.00105
1.27100   0.00115
1.27200   0.00055
1.27300   0.0006
1.27400   0.0009
1.27500   0.0007
1.27600   0.0005
1.27700   0.0005
1.27800   0.001
1.27900   0.0013
1.28000   0.00095
1.28100   0.0012
1.28200   0.0012
1.28300   0.00095
1.28400   0.00125
1.28500   0.0016
1.28600   0.00155
1.28700   0.0016
1.28800   0.0022
1.28900   0.0025
1.29000   0.00235
1.29100   0.0024
1.29200   0.00305
1.29300   0.0032
1.29400   0.00315
1.29500   0.00355
1.29600   0.00395
1.29700   0.00385
1.29800   0.0037
1.29900   0.0041
1.30000   0.0041
1.30100   0.00365
1.30200   0.00415
1.30300   0.00455
1.30400   0.00395
1.30500   0.00345
1.30600   0.0041
1.30700   0.00375
1.30800   0.003
1.30900   0.0038
1.31000   0.0041
1.31100   0.0038
1.31200   0.0032
1.31300   0.00315
1.31400   0.0033
1.31500   0.0033
1.31600   0.003
1.31700   0.00275
1.31800   0.0025
1.31900   0.00245
1.32000   0.00255
1.32100   0.0026
1.32200   0.00205
1.32300   0.00135
1.32400   0.0016
1.32500   0.0018
1.32600   0.0016
1.32700   0.0016
1.32800   0.00205
1.32900   0.00175
1.33000   0.00135
1.33100   0.00145
1.33200   0.0019
1.33300   0.0017
1.33400   0.0016
1.33500   0.0016
1.33600   0.0015
1.33700   0.00135
1.33800   0.00135
1.33900   0.0017
1.34000   0.00165
1.34100   0.00105
1.34200   0.0013
1.34300   0.00125
1.34400   0.00095
1.34500   0.0008
1.34600   0.001
1.34700   0.00075
1.34800   0.00025
1.34900   0.0005
1.35000   0.0008
1.35100   0.0009
1.35200   0.00075
1.35300   0.0011
1.35400   0.0011
1.35500   0.0002
1.35600   0.0002
1.35700   0.00025
1.35800   0.0002
1.35900   0.0006
1.36000   0.0017
1.36100   0.00235
1.36200   0.0001
1.36300   0.0016
1.36400   0.0021
1.36500   0.00075
1.36600   0.00105
1.36700   0.00215
1.36800   0.0022
1.36900   0.00235
1.37000   0.00245
1.37100   0.0014
1.37200   0.001
1.37300   0.001
1.37400   0.00095
1.37500   0.00075
1.37600   0.00005
1.37700   0
1.37800   0
1.37900   0.00025
1.38000   0.00045
1.38100   0.0018
1.38200   0.00245
1.38300   0.00075
1.38400   0.0005
1.38500   0.0004
1.38600   0.00135
1.38700   0.00185
1.38800   0.0006
1.38900   0.0007
1.39000   0.00115
1.39100   0.00215
1.39200   0.00115
1.39300   0.00125
1.39400   0.00245
1.39500   0.00225
1.39600   0.0011
1.39700   0
1.39800   0.00045
1.39900   0.00165
1.40000   0.0022
1.40100   0.00075
1.40200   0
1.40300   0.0009
1.40400   0.0016
1.40500   0.00085
1.40600   0.00125
1.40700   0.0016
1.40800   0.00205
1.40900   0.0017
1.41000   0.0011
1.41100   0.0008
1.41200   0.00065
1.41300   0.00165
1.41400   0.0014
1.41500   0.00045
1.41600   0.00025
1.41700   0.00085
1.41800   0.0013
1.41900   0.0014
1.42000   0.00105
1.42100   0.0015
1.42200   0.00215
1.42300   0.00165
1.42400   0.00085
1.42500   0.0009
1.42600   0.00115
1.42700   0.00085
1.42800   0.00095
1.42900   0.00125
1.43000   0.00135
1.43100   0.00155
1.43200   0.00145
1.43300   0.0012
1.43400   0.00095
1.43500   0.00085
1.43600   0.00125
1.43700   0.0012
1.43800   0.0008
1.43900   0.00085
1.44000   0.0012
1.44100   0.00065
1.44200   0.0004
1.44300   0.0008
1.44400   0.00135
1.44500   0.00095
1.44600   0.00085
1.44700   0.0013
1.44800   0.00135
1.44900   0.00135
1.45000   0.0017
1.45100   0.0016
1.45200   0.00135
1.45300   0.00135
1.45400   0.0019
1.45500   0.00235
1.45600   0.00195
1.45700   0.0018
1.45800   0.0022
1.45900   0.0026
1.46000   0.0017
1.46100   0.00175
1.46200   0.00195
1.46300   0.00135
1.46400   0.0012
1.46500   0.0015
1.46600   0.0015
1.46700   0.00195
1.46800   0.0026
1.46900   0.0034
1.47000   0.00265
1.47100   0.00255
1.47200   0.0029
1.47300   0.003
1.47400   0.00255
1.47500   0.00245
1.47600   0.0029
1.47700   0.00285
1.47800   0.0027
1.47900   0.0033
1.48000   0.0036
1.48100   0.0035
1.48200   0.0034
1.48300   0.0041
1.48400   0.00415
1.48500   0.0043
1.48600   0.0047
1.48700   0.00515
1.48800   0.0053
1.48900   0.00615
1.49000   0.0067
1.49100   0.00655
1.49200   0.00645
1.49300   0.0065
1.49400   0.0074
1.49500   0.0078
1.49600   0.0075
1.49700   0.00765
1.49800   0.0082
1.49900   0.0089
1.50000   0.0089
1.50100   0.01005
1.50200   0.0104
1.50300   0.0103
1.50400   0.01125
1.50500   0.0125
1.50600   0.0125
1.50700   0.0134
1.50800   0.015
1.50900   0.01675
1.51000   0.0168
1.51100   0.01865
1.51200   0.0202
1.51300   0.02205
1.51400   0.02265
1.51500   0.0246
1.51600   0.02625
1.51700   0.02855
1.51800   0.02975
1.51900   0.03235
1.52000   0.034
1.52100   0.0367
1.52200   0.0391
1.52300   0.04345
1.52400   0.0458
1.52500   0.0502
1.52600   0.05375
1.52700   0.0594
1.52800   0.0629
1.52900   0.0698
1.53000   0.07515
1.53100   0.08285
1.53200   0.08795
1.53300   0.097
1.53400   0.10425
1.53500   0.1154
1.53600   0.1232
1.53700   0.1368
1.53800   0.1474
1.53900   0.16355
1.54000   0.17555
1.54100   0.1955
1.54200   0.20885
1.54300   0.2305
1.54400   0.2471
1.54500   0.27335
1.54600   0.291
1.54700   0.31925
1.54800   0.34055
1.54900   0.374
1.55000   0.3961
1.55100   0.43055
1.55200   0.45395
1.55300   0.4896
1.55400   0.51295
1.55500   0.5483
1.55600   0.57145
1.55700   0.60505
1.55800   0.6269
1.55900   0.65775
1.56000   0.67445
1.56100   0.6974
1.56200   0.7125
1.56300   0.7323
1.56400   0.7429
1.56500   0.7574
1.56600   0.76605
1.56700   0.77615
1.56800   0.78095
1.56900   0.78825
1.57000   0.79205
1.57100   0.79455
1.57200   0.79615
1.57300   0.79875
1.57400   0.8003
1.57500   0.80115
1.57600   0.80115
1.57700   0.8027
1.57800   0.80305
1.57900   0.80355
1.58000   0.8044
1.58100   0.80515
1.58200   0.80525
1.58300   0.80645
1.58400   0.8086
1.58500   0.80965
1.58600   0.8096
1.58700   0.8112
1.58800   0.81425
1.58900   0.81585
1.59000   0.8159
1.59100   0.818
1.59200   0.82035
1.59300   0.823
1.59400   0.82405
1.59500   0.8255
1.59600   0.8263
1.59700   0.82735
1.59800   0.82915
1.59900   0.83095
1.60000   0.83025
1.60100   0.82955
1.60200   0.83055
1.60300   0.8317
1.60400   0.82975
1.60500   0.8285
1.60600   0.8276
1.60700   0.8262
1.60800   0.82425
1.60900   0.82185
1.61000   0.81975
1.61100   0.8158
1.61200   0.8131
1.61300   0.8098
1.61400   0.8066
1.61500   0.8011
1.61600   0.79825
1.61700   0.79475
1.61800   0.791
1.61900   0.7859
1.62000   0.783
1.62100   0.77795
1.62200   0.77435
1.62300   0.77015
1.62400   0.7685
1.62500   0.76435
1.62600   0.76195
1.62700   0.76005
1.62800   0.7595
1.62900   0.7579
1.63000   0.7569
1.63100   0.75645
1.63200   0.7568
1.63300   0.75775
1.63400   0.7586
1.63500   0.7602
1.63600   0.7611
1.63700   0.76425
1.63800   0.7684
1.63900   0.77205
1.64000   0.77395
1.64100   0.778
1.64200   0.78235
1.64300   0.7869
1.64400   0.78945
1.64500   0.79385
1.64600   0.79705
1.64700   0.8001
1.64800   0.80145
